Current (mA),Time (ms)
Current (mA),Time (ms)
0.000,1414.000
0.075,11604.000
0.078,11880.000
0.075,12158.000
0.067,12436.000
0.072,12712.000
0.065,12987.000
0.066,13262.000
0.067,13537.000
0.068,13815.000
0.068,14092.000
0.069,14367.000
0.071,14644.000
0.070,14917.000
0.072,15195.000
0.072,15471.000
0.073,15750.000
0.074,16027.000
0.075,16301.000
0.076,16578.000
0.076,16855.000
0.077,17130.000
0.078,17404.000
0.079,17685.000
0.079,17962.000
0.080,18239.000
0.081,18514.000
0.082,18791.000
0.082,19068.000
0.083,19344.000
0.083,19622.000
0.084,19898.000
0.084,20173.000
0.085,20448.000
0.086,20727.000
0.086,21003.000
0.087,21280.000
0.087,21555.000
0.088,21835.000
0.088,22111.000
0.089,22387.000
0.090,22663.000
0.090,22940.000
0.091,23214.000
0.091,23490.000
0.093,23766.000
0.092,24041.000
0.093,24317.000
0.094,24593.000
0.095,24870.000
0.097,25145.000
0.097,25420.000
0.097,25696.000
0.098,25970.000
0.099,26246.000
0.099,26521.000
0.100,26799.000
0.100,27073.000
0.101,27348.000
0.101,27622.000
0.102,27896.000
0.103,28167.000
0.103,28436.000
0.104,28710.000
0.104,28981.000
0.105,29257.000
0.104,29533.000
0.106,29804.000
0.106,30079.000
0.106,30351.000
0.107,30624.000
0.107,30896.000
0.108,31167.000
0.108,31436.000
0.109,31706.000
0.108,31981.000
0.110,32251.000
0.111,32524.000
0.112,32797.000
0.111,33070.000
0.113,33341.000
0.112,33613.000
0.113,33884.000
0.113,34155.000
0.113,34429.000
0.113,34701.000
0.114,34974.000
0.115,35246.000
0.114,35518.000
0.115,35788.000
0.117,36059.000
0.116,36330.000
0.116,36602.000
0.117,36871.000
0.117,37144.000
0.117,37417.000
0.119,37688.000
0.119,37959.000
0.119,38230.000
0.119,38502.000
0.121,38772.000
0.120,39043.000
0.122,39314.000
0.121,39585.000
0.122,39858.000
0.121,40131.000
0.122,40405.000
0.122,40677.000
0.122,40952.000
0.123,41226.000
0.124,41498.000
0.123,41770.000
0.124,42045.000
0.125,42317.000
0.125,42590.000
0.125,42863.000
0.125,43133.000
0.126,43404.000
0.126,43676.000
0.125,43946.000
0.126,44219.000
0.126,44490.000
0.126,44760.000
0.127,45032.000
0.127,45303.000
0.127,45577.000
0.127,45848.000
0.128,46122.000
0.130,46392.000
0.129,46663.000
0.130,46936.000
0.129,47208.000
0.130,47480.000
0.130,47750.000
0.129,48025.000
0.131,48298.000
0.130,48572.000
0.131,48845.000
0.130,49119.000
0.131,49393.000
0.133,49664.000
0.130,49936.000
0.131,50210.000
0.132,50482.000
0.132,50752.000
0.132,51026.000
0.133,51298.000
0.132,51570.000
0.134,51843.000
0.133,52114.000
0.134,52385.000
0.215,52655.000
0.220,52928.000
0.236,53201.000
0.229,53474.000
0.214,53750.000
0.242,54022.000
0.215,54298.000
0.225,54571.000
0.235,54842.000
0.213,55116.000
0.214,55395.000
0.229,55666.000
0.233,55942.000
0.230,56215.000
0.252,56489.000
0.234,56759.000
0.247,57032.000
0.231,57304.000
0.249,57576.000
0.237,57851.000
0.232,58126.000
0.241,58398.000
0.245,58669.000
0.283,58942.000
0.331,59215.000
0.342,59490.000
0.350,59764.000
0.351,60036.000
0.387,60309.000
0.360,60581.000
0.371,60851.000
0.377,61125.000
0.384,61400.000
0.346,61671.000
0.349,61944.000
0.360,62214.000
0.434,62487.000
0.424,62758.000
0.434,63030.000
0.455,63302.000
0.446,63574.000
0.476,63846.000
0.491,64117.000
0.470,64389.000
0.499,64661.000
0.465,64935.000
0.476,65204.000
0.597,65475.000
0.557,65746.000
0.554,66017.000
0.550,66289.000
0.542,66563.000
0.537,66837.000
0.545,67108.000
0.557,67379.000
0.576,67651.000
0.625,67922.000
0.600,68192.000
0.621,68464.000
0.633,68738.000
0.806,69014.000
0.736,69286.000
0.747,69555.000
0.768,69827.000
0.745,70098.000
0.753,70372.000
0.726,70642.000
0.870,70913.000
0.890,71185.000
0.913,71455.000
1.008,71726.000
0.953,71999.000
0.986,72273.000
1.039,72545.000
1.068,72968.000
1.124,73239.000
1.177,73510.000
1.142,73783.000
1.173,74057.000
1.128,74330.000
1.152,74602.000
1.254,74874.000
1.197,75148.000
1.204,75417.000
1.252,75690.000
1.350,75960.000
1.364,76229.000
1.322,76501.000
1.401,76773.000
1.350,77044.000
1.433,77320.000
1.420,77589.000
1.479,77864.000
1.474,78137.000
1.457,78411.000
1.462,78684.000
1.527,78953.000
1.466,79223.000
1.562,79497.000
1.660,79770.000
1.642,80042.000
1.648,80315.000
1.689,80588.000
1.674,80858.000
1.638,81131.000
1.702,81405.000
1.720,81678.000
1.757,81953.000
1.881,82225.000
1.797,82496.000
1.802,82767.000
1.926,83041.000
1.936,83312.000
2.002,83587.000
1.920,83859.000
2.045,84134.000
2.096,84410.000
2.018,84682.000
2.068,84956.000
2.047,85229.000
2.071,85502.000
2.172,85775.000
2.129,86048.000
2.177,86319.000
2.146,86589.000
2.124,86862.000
2.098,87135.000
2.156,87409.000
2.182,87682.000
2.195,87955.000
2.162,88228.000
2.313,88502.000
2.324,88772.000
2.410,89043.000
2.435,89315.000
2.645,89590.000
2.666,89861.000
2.574,90131.000
2.628,90403.000
2.578,90678.000
2.602,90950.000
2.767,91221.000
2.832,91492.000
2.776,91766.000
2.832,92038.000
2.862,92308.000
2.988,92580.000
2.944,92851.000
2.962,93121.000
3.054,93390.000
3.012,93660.000
2.989,93933.000
3.005,94204.000
3.086,94475.000
3.080,94749.000
3.069,95021.000
3.141,95294.000
3.084,95567.000
3.240,95838.000
3.140,96112.000
3.120,96382.000
3.314,96655.000
3.417,96927.000
3.377,97199.000
3.424,97471.000
3.636,97741.000
3.580,98014.000
3.635,98287.000
3.624,98560.000
3.790,98832.000
3.735,99102.000
3.892,99377.000
3.954,99648.000
4.067,99924.000
4.126,100198.000
4.206,100471.000
4.287,100742.000
4.361,101015.000
4.517,101288.000
4.578,101560.000
4.554,101831.000
4.349,102101.000
4.586,102376.000
4.577,102649.000
4.633,102922.000
4.771,103192.000
4.782,103464.000
4.936,103735.000
4.881,104007.000
4.902,104281.000
5.116,104553.000
