Current (mA),Time (ms)
Current (mA),Time (ms)
0.000,95.000
3.383,10298.000
3.141,10568.000
3.264,10840.000
3.379,11112.000
3.492,11383.000
3.603,11655.000
3.678,11930.000
3.735,12201.000
3.787,12474.000
3.838,12747.000
3.882,13021.000
3.920,13292.000
3.952,13565.000
3.975,13840.000
3.997,14111.000
4.013,14383.000
4.022,14654.000
4.026,14928.000
4.025,15201.000
4.020,15471.000
4.009,15742.000
3.991,16015.000
3.970,16287.000
3.945,16561.000
3.918,16835.000
3.890,17108.000
3.860,17380.000
3.827,17653.000
3.797,17926.000
3.766,18200.000
3.734,18472.000
3.704,18744.000
3.671,19016.000
3.640,19289.000
3.613,19560.000
3.584,19832.000
3.558,20104.000
3.534,20375.000
3.511,20648.000
3.490,20920.000
3.469,21191.000
3.451,21465.000
3.435,21739.000
3.421,22013.000
3.408,22285.000
3.396,22556.000
3.385,22830.000
3.372,23101.000
3.361,23371.000
3.351,23643.000
3.342,23914.000
3.335,24185.000
3.328,24460.000
3.323,24734.000
3.316,25008.000
3.311,25280.000
3.306,25551.000
3.302,25822.000
3.299,26093.000
3.292,26365.000
3.286,26638.000
3.280,26914.000
3.275,27185.000
3.268,27456.000
3.259,27730.000
3.253,28002.000
3.245,28273.000
3.241,28546.000
3.235,28817.000
3.231,29088.000
3.223,29358.000
3.215,29631.000
3.213,29903.000
3.208,30174.000
3.203,30445.000
3.196,30716.000
3.191,30989.000
3.186,31262.000
3.182,31534.000
3.177,31804.000
3.171,32076.000
3.165,32348.000
3.159,32619.000
3.157,32890.000
3.153,33163.000
3.151,33434.000
3.148,33705.000
3.146,33977.000
3.143,34248.000
3.141,34518.000
3.138,34790.000
3.137,35062.000
3.135,35333.000
3.132,35602.000
3.134,35876.000
3.135,36147.000
3.130,36421.000
3.129,36693.000
3.127,36962.000
3.131,37235.000
3.133,37509.000
3.130,37780.000
3.130,38050.000
3.126,38325.000
3.127,38597.000
3.125,38870.000
3.127,39147.000
3.123,39419.000
3.123,39689.000
3.124,39961.000
3.127,40235.000
3.125,40512.000
3.130,40784.000
3.129,41055.000
3.126,41326.000
3.130,41599.000
3.135,41871.000
3.135,42144.000
3.137,42415.000
3.138,42688.000
3.137,42961.000
3.137,43232.000
3.138,43505.000
3.143,43775.000
3.151,44047.000
3.153,44318.000
3.152,44588.000
3.153,44860.000
3.153,45130.000
3.153,45401.000
3.151,45673.000
3.152,45945.000
3.154,46214.000
3.156,46485.000
3.161,46757.000
3.160,47027.000
3.161,47298.000
3.159,47569.000
3.164,47841.000
3.162,48111.000
3.162,48382.000
3.163,48650.000
3.161,48920.000
3.161,49191.000
3.173,49461.000
3.172,49731.000
3.170,50002.000
3.170,50272.000
3.173,50543.000
3.173,50818.000
3.176,51092.000
3.181,51363.000
3.189,51636.000
3.190,51908.000
3.198,52182.000
3.200,52455.000
3.198,52727.000
3.201,52997.000
3.204,53271.000
3.205,53542.000
3.206,53813.000
3.201,54085.000
3.208,54359.000
3.206,54631.000
3.205,54903.000
3.203,55174.000
3.199,55446.000
3.197,55720.000
3.197,55992.000
3.200,56264.000
3.203,56537.000
3.204,56808.000
3.205,57080.000
3.205,57351.000
3.201,57623.000
3.208,57894.000
3.210,58168.000
3.210,58438.000
3.206,58711.000
3.203,58983.000
3.205,59253.000
3.211,59528.000
3.210,59803.000
3.214,60075.000
3.216,60347.000
3.216,60618.000
3.211,60888.000
3.215,61162.000
3.221,61434.000
3.222,61707.000
3.223,61981.000
3.236,62252.000
3.235,62523.000
3.230,62796.000
3.227,63068.000
3.226,63338.000
3.230,63610.000
3.228,63882.000
3.228,64154.000
3.239,64426.000
3.239,64698.000
3.245,64970.000
3.250,65241.000
3.253,65511.000
3.254,65783.000
3.256,66054.000
3.257,66326.000
3.259,66598.000
3.270,66873.000
3.263,67146.000
3.301,67416.000
3.305,67689.000
3.305,67962.000
3.318,68232.000
3.306,68503.000
3.307,68776.000
3.308,69046.000
3.310,69319.000
3.309,69590.000
3.307,69861.000
3.305,70131.000
3.314,70402.000
3.314,70675.000
3.310,70946.000
3.315,71217.000
3.317,71488.000
3.321,71760.000
3.322,72031.000
3.336,72302.000
3.338,72575.000
3.331,72848.000
3.337,73123.000
3.339,73395.000
3.347,73667.000
3.370,73940.000
3.380,74210.000
3.392,74481.000
3.401,74751.000
3.396,75023.000
3.417,75293.000
3.427,75565.000
3.429,75836.000
3.432,76109.000
3.455,76381.000
3.479,76653.000
3.490,76925.000
3.485,77197.000
3.508,77468.000
3.518,77739.000
3.540,78013.000
3.547,78284.000
3.547,78555.000
3.554,78828.000
3.562,79101.000
3.566,79371.000
3.600,79644.000
3.597,79915.000
3.641,80185.000
3.651,80455.000
3.652,80727.000
3.679,80998.000
3.699,81271.000
3.701,81542.000
3.730,81814.000
3.757,82085.000
3.773,82358.000
3.773,82632.000
3.800,82905.000
3.814,83178.000
3.829,83452.000
3.853,83725.000
3.854,83996.000
3.920,84267.000
3.934,84540.000
3.965,84810.000
3.973,85083.000
4.015,85355.000
4.016,85628.000
4.039,85901.000
4.083,86173.000
4.113,86442.000
4.107,86711.000
4.131,86983.000
4.132,87256.000
4.140,87527.000
4.136,87800.000
4.152,88073.000
4.186,88346.000
4.202,88616.000
4.242,88886.000
4.242,89158.000
4.263,89431.000
4.309,89700.000
4.333,89974.000
4.368,90246.000
4.397,90519.000
4.477,90790.000
4.566,91061.000
4.604,91333.000
4.617,91607.000
4.667,91879.000
4.683,92150.000
4.715,92422.000
4.708,92694.000
4.822,92964.000
4.886,93239.000
4.932,93510.000
4.952,93783.000
4.941,94053.000
4.962,94324.000
5.010,94593.000
