Current (mA),Time (ms)
Current (mA),Time (ms)
0.000,98.000
2.750,10292.000
2.630,10561.000
2.801,10832.000
2.988,11102.000
3.153,11372.000
3.294,11642.000
3.414,11912.000
3.516,12185.000
3.600,12456.000
3.672,12728.000
3.734,13000.000
3.785,13272.000
3.825,13542.000
3.852,13814.000
3.867,14085.000
3.867,14357.000
3.857,14627.000
3.840,14897.000
3.820,15165.000
3.800,15437.000
3.781,15708.000
3.761,15980.000
3.743,16252.000
3.724,16524.000
3.706,16796.000
3.689,17066.000
3.672,17336.000
3.653,17610.000
3.635,17881.000
3.619,18150.000
3.601,18424.000
3.583,18697.000
3.566,18969.000
3.548,19242.000
3.531,19514.000
3.515,19785.000
3.499,20058.000
3.484,20331.000
3.469,20601.000
3.454,20875.000
3.440,21145.000
3.426,21416.000
3.411,21687.000
3.398,21957.000
3.387,22228.000
3.376,22501.000
3.368,22771.000
3.356,23046.000
3.345,23318.000
3.335,23592.000
3.330,23865.000
3.323,24137.000
3.318,24409.000
3.313,24682.000
3.309,24956.000
3.300,25226.000
3.294,25496.000
3.289,25765.000
3.288,26037.000
3.284,26312.000
3.271,26584.000
3.267,26854.000
3.265,27126.000
3.263,27398.000
3.258,27674.000
3.246,27944.000
3.239,28218.000
3.235,28489.000
3.228,28761.000
3.222,29032.000
3.216,29301.000
3.211,29572.000
3.211,29844.000
3.208,30114.000
3.211,30386.000
3.217,30658.000
3.215,30930.000
3.211,31202.000
3.211,31474.000
3.203,31745.000
3.200,32017.000
3.197,32288.000
3.194,32560.000
3.192,32831.000
3.188,33103.000
3.186,33373.000
3.187,33645.000
3.188,33918.000
3.184,34188.000
3.185,34459.000
3.182,34730.000
3.180,35003.000
3.181,35275.000
3.176,35547.000
3.179,35820.000
3.175,36091.000
3.174,36362.000
3.171,36635.000
3.170,36906.000
3.170,37177.000
3.167,37448.000
3.173,37719.000
3.180,37991.000
3.179,38262.000
3.175,38535.000
3.175,38806.000
3.179,39079.000
3.178,39352.000
3.175,39622.000
3.169,39892.000
3.167,40163.000
3.171,40435.000
3.171,40705.000
3.167,40976.000
3.173,41249.000
3.171,41522.000
3.175,41791.000
3.180,42062.000
3.185,42334.000
3.183,42607.000
3.184,42876.000
3.191,43147.000
3.197,43419.000
3.198,43688.000
3.203,43959.000
3.208,44230.000
3.203,44501.000
3.201,44771.000
3.204,45043.000
3.202,45314.000
3.213,45584.000
3.212,45855.000
3.220,46126.000
3.229,46396.000
3.234,46666.000
3.224,46938.000
3.218,47209.000
3.215,47480.000
3.224,47750.000
3.229,48022.000
3.227,48294.000
3.234,48563.000
3.238,48835.000
3.249,49104.000
3.247,49375.000
3.259,49646.000
3.261,49917.000
3.262,50191.000
3.258,50465.000
3.255,50735.000
3.254,51006.000
3.250,51279.000
3.257,51551.000
3.259,51822.000
3.258,52091.000
3.252,52362.000
3.268,52634.000
3.268,52906.000
3.272,53178.000
3.272,53449.000
3.275,53719.000
3.285,53987.000
3.291,54257.000
3.288,54530.000
3.285,54799.000
3.289,55071.000
3.299,55343.000
3.300,55613.000
3.307,55883.000
3.313,56155.000
3.317,56427.000
3.319,56696.000
3.318,56965.000
3.332,57236.000
3.337,57509.000
3.334,57779.000
3.336,58053.000
3.345,58326.000
3.343,58597.000
3.338,58869.000
3.345,59142.000
3.355,59415.000
3.357,59686.000
3.364,59957.000
3.367,60228.000
3.364,60501.000
3.383,60771.000
3.377,61043.000
3.385,61312.000
3.386,61584.000
3.395,61855.000
3.397,62126.000
3.399,62395.000
3.399,62666.000
3.405,62934.000
3.412,63207.000
3.406,63479.000
3.409,63751.000
3.411,64021.000
3.421,64293.000
3.422,64565.000
3.429,64836.000
3.427,65107.000
3.427,65377.000
3.426,65647.000
3.441,65918.000
3.440,66190.000
3.445,66464.000
3.452,66734.000
3.458,67006.000
3.467,67276.000
3.471,67549.000
3.491,67823.000
3.485,68096.000
3.487,68369.000
3.490,68641.000
3.492,68912.000
3.488,69184.000
3.489,69454.000
3.492,69726.000
3.493,69998.000
3.496,70271.000
3.524,70542.000
3.557,70815.000
3.555,71087.000
3.548,71360.000
3.541,71632.000
3.540,71903.000
3.539,72172.000
3.535,72442.000
3.541,72715.000
3.549,72986.000
3.565,73257.000
3.560,73530.000
3.569,73804.000
3.630,74076.000
3.633,74351.000
3.635,74622.000
3.668,74895.000
3.677,75166.000
3.691,75435.000
3.705,75706.000
3.707,75977.000
3.699,76248.000
3.692,76519.000
3.678,76793.000
3.694,77064.000
3.724,77337.000
3.736,77608.000
3.741,77879.000
3.739,78151.000
3.747,78423.000
3.735,78693.000
3.730,78967.000
3.738,79239.000
3.786,79509.000
3.798,79779.000
3.801,80051.000
3.799,80322.000
3.793,80594.000
3.793,80866.000
3.787,81138.000
3.790,81409.000
3.802,81679.000
3.804,81951.000
3.835,82220.000
3.831,82491.000
3.859,82761.000
3.852,83032.000
3.859,83301.000
3.847,83574.000
3.859,83845.000
3.866,84117.000
3.862,84390.000
3.853,84662.000
3.858,84933.000
3.888,85205.000
3.911,85476.000
3.913,85747.000
3.910,86017.000
3.915,86288.000
3.919,86560.000
3.919,86829.000
3.911,87100.000
3.909,87372.000
3.910,87644.000
3.934,87916.000
3.966,88191.000
3.952,88460.000
3.955,88730.000
3.958,89002.000
3.990,89274.000
3.997,89544.000
3.986,89818.000
3.983,90088.000
3.988,90358.000
4.010,90630.000
4.017,90903.000
4.029,91174.000
4.050,91446.000
4.024,91717.000
4.032,91989.000
4.041,92263.000
4.028,92535.000
4.020,92806.000
4.014,93078.000
4.033,93351.000
4.050,93624.000
4.075,93894.000
4.094,94165.000
4.089,94437.000
4.054,94710.000
4.081,94980.000
4.053,95252.000
4.050,95523.000
4.044,95797.000
4.050,96068.000
4.057,96337.000
4.060,96610.000
4.082,96879.000
4.109,97150.000
4.115,97420.000
4.119,97691.000
4.146,97959.000
4.144,98231.000
4.149,98501.000
4.158,98774.000
4.152,99048.000
4.179,99321.000
4.187,99591.000
4.216,99862.000
4.178,100132.000
4.196,100402.000
4.230,100673.000
4.223,100952.000
4.223,101221.000
4.265,101492.000
4.257,101765.000
4.272,102038.000
4.282,102308.000
4.297,102578.000
4.293,102846.000
4.285,103118.000
4.289,103392.000
4.317,103662.000
4.353,103933.000
4.350,104207.000
4.346,104477.000
4.332,104747.000
4.513,105019.000
4.507,105291.000
4.534,105564.000
4.507,105835.000
4.534,106109.000
4.527,106378.000
4.544,106649.000
4.498,106922.000
4.475,107192.000
4.470,107463.000
4.477,107734.000
4.528,108005.000
4.568,108276.000
4.579,108548.000
4.584,108818.000
4.590,109088.000
4.602,109360.000
4.618,109631.000
4.635,109902.000
4.628,110171.000
4.643,110444.000
4.657,110715.000
4.648,110988.000
4.638,111258.000
4.665,111529.000
4.646,111798.000
4.616,112069.000
4.632,112340.000
4.658,112611.000
4.700,112882.000
4.696,113152.000
4.732,113425.000
4.726,113696.000
4.727,113968.000
4.745,114241.000
4.724,114514.000
4.754,114785.000
4.809,115055.000
4.826,115328.000
4.831,115600.000
4.944,115871.000
4.979,116141.000
4.966,116413.000
5.052,116684.000
